# CANOPUS background
#
# Assumes 6% emissivity for Science Fold and
# AO Fold (estimated)
#
# File based on measurements performed during the
# Nfiraos IRIS commissioning. Values below 1800nm are
# from ALTAIR background file. Values above 1800nm
# are from the on-sky Nfiraos/IRIS commissioning.
# Data obtained 2012 April 06/07/08.
#
# author: Rodrigo Carrasco
# created: 06 August 12
#
#  Wavelength        Flux density
#  (nm)          (ph/sec/nm/arcsec2/m2)
     900         4.752E-14
   900.5          4.92E-14
     901         5.064E-14
   901.5         5.208E-14
     902         5.376E-14
   902.5         5.544E-14
     903         5.712E-14
   903.5          5.88E-14
     904         6.072E-14
   904.5          6.24E-14
     905         6.432E-14
   905.5         6.624E-14
     906          6.84E-14
   906.5         7.032E-14
     907         7.248E-14
   907.5         7.464E-14
     908         7.704E-14
   908.5         7.944E-14
     909         8.184E-14
   909.5         8.424E-14
     910         8.664E-14
   910.5         8.928E-14
     911         9.192E-14
   911.5          9.48E-14
     912         9.768E-14
   912.5        1.0056E-13
     913        1.0344E-13
   913.5        1.0656E-13
     914        1.0968E-13
   914.5        1.1304E-13
     915         1.164E-13
   915.5           1.2E-13
     916        1.2336E-13
   916.5         1.272E-13
     917         1.308E-13
   917.5        1.3464E-13
     918        1.3872E-13
   918.5         1.428E-13
     919        1.4712E-13
   919.5        1.5144E-13
     920        1.5576E-13
   920.5        1.6032E-13
     921        1.6512E-13
   921.5        1.6992E-13
     922        1.7496E-13
   922.5           1.8E-13
     923        1.8528E-13
   923.5        1.9056E-13
     924        1.9608E-13
   924.5        2.0184E-13
     925        2.0784E-13
   925.5        2.1384E-13
     926        2.2008E-13
   926.5        2.2632E-13
     927        2.3304E-13
   927.5        2.3976E-13
     928         2.472E-13
   928.5         2.544E-13
     929         2.616E-13
   929.5         2.688E-13
     930          2.76E-13
   930.5         2.832E-13
     931         2.928E-13
   931.5             3E-13
     932         3.096E-13
   932.5         3.192E-13
     933         3.264E-13
   933.5          3.36E-13
     934         3.456E-13
   934.5         3.552E-13
     935         3.672E-13
   935.5         3.768E-13
     936         3.864E-13
   936.5         3.984E-13
     937         4.104E-13
   937.5           4.2E-13
     938          4.32E-13
   938.5          4.44E-13
     939         4.584E-13
   939.5         4.704E-13
     940         4.848E-13
   940.5         4.968E-13
     941         5.112E-13
   941.5         5.256E-13
     942           5.4E-13
   942.5         5.544E-13
     943         5.712E-13
   943.5         5.856E-13
     944         6.024E-13
   944.5         6.192E-13
     945          6.36E-13
   945.5         6.552E-13
     946          6.72E-13
   946.5         6.912E-13
     947         7.104E-13
   947.5         7.296E-13
     948         7.512E-13
   948.5         7.704E-13
     949          7.92E-13
   949.5         8.136E-13
     950         8.376E-13
   950.5         8.592E-13
     951         8.832E-13
   951.5         9.072E-13
     952         9.312E-13
   952.5         9.576E-13
     953          9.84E-13
   953.5        1.0104E-12
     954        1.0368E-12
   954.5        1.0656E-12
     955        1.0944E-12
   955.5        1.1256E-12
     956        1.1544E-12
   956.5        1.1856E-12
     957        1.2192E-12
   957.5        1.2528E-12
     958        1.2864E-12
   958.5          1.32E-12
     959         1.356E-12
   959.5         1.392E-12
     960        1.4304E-12
   960.5        1.4688E-12
     961        1.5072E-12
   961.5         1.548E-12
     962        1.5888E-12
   962.5         1.632E-12
     963        1.6752E-12
   963.5        1.7208E-12
     964        1.7664E-12
   964.5         1.812E-12
     965          1.86E-12
   965.5        1.9104E-12
     966        1.9608E-12
   966.5        2.0136E-12
     967        2.0664E-12
   967.5        2.1216E-12
     968        2.1768E-12
   968.5        2.2344E-12
     969        2.2944E-12
   969.5        2.3544E-12
     970         2.424E-12
   970.5         2.472E-12
     971         2.544E-12
   971.5         2.616E-12
     972         2.688E-12
   972.5          2.76E-12
     973         2.832E-12
   973.5         2.904E-12
     974         2.976E-12
   974.5         3.048E-12
     975          3.12E-12
   975.5         3.216E-12
     976         3.288E-12
   976.5         3.384E-12
     977         3.456E-12
   977.5         3.552E-12
     978         3.648E-12
   978.5         3.744E-12
     979          3.84E-12
   979.5         3.936E-12
     980         4.032E-12
   980.5         4.152E-12
     981         4.248E-12
   981.5         4.344E-12
     982         4.464E-12
   982.5         4.584E-12
     983         4.704E-12
   983.5         4.824E-12
     984         4.944E-12
   984.5         5.064E-12
     985         5.208E-12
   985.5         5.328E-12
     986         5.472E-12
   986.5         5.592E-12
     987         5.736E-12
   987.5          5.88E-12
     988         6.048E-12
   988.5         6.192E-12
     989          6.36E-12
   989.5         6.504E-12
     990         6.672E-12
   990.5          6.84E-12
     991         7.008E-12
   991.5           7.2E-12
     992         7.368E-12
   992.5          7.56E-12
     993         7.752E-12
   993.5         7.944E-12
     994         8.136E-12
   994.5         8.328E-12
     995         8.544E-12
   995.5          8.76E-12
     996         8.976E-12
   996.5         9.192E-12
     997         9.432E-12
   997.5         9.672E-12
     998         9.912E-12
   998.5        1.0152E-11
     999        1.0392E-11
   999.5        1.0656E-11
    1000         1.092E-11
  1000.5        1.1184E-11
    1001        1.1448E-11
  1001.5        1.1736E-11
    1002        1.2024E-11
  1002.5        1.2336E-11
    1003        1.2624E-11
  1003.5        1.2936E-11
    1004        1.3248E-11
  1004.5        1.3584E-11
    1005        1.3896E-11
  1005.5        1.4256E-11
    1006        1.4592E-11
  1006.5        1.4952E-11
    1007        1.5312E-11
  1007.5        1.5696E-11
    1008        1.6056E-11
  1008.5        1.6464E-11
    1009        1.6848E-11
  1009.5        1.7256E-11
    1010        1.7688E-11
  1010.5        1.8096E-11
    1011        1.8528E-11
  1011.5        1.8984E-11
    1012         1.944E-11
  1012.5         1.992E-11
    1013        2.0376E-11
  1013.5         2.088E-11
    1014        2.1384E-11
  1014.5        2.1888E-11
    1015        2.2416E-11
  1015.5        2.2944E-11
    1016        2.3496E-11
  1016.5           2.4E-11
    1017         2.472E-11
  1017.5          2.52E-11
    1018         2.592E-11
  1018.5          2.64E-11
    1019         2.712E-11
  1019.5          2.76E-11
    1020         2.832E-11
  1020.5         2.904E-11
    1021         2.976E-11
  1021.5         3.048E-11
    1022          3.12E-11
  1022.5         3.192E-11
    1023         3.264E-11
  1023.5         3.336E-11
    1024         3.408E-11
  1024.5         3.504E-11
    1025         3.576E-11
  1025.5         3.648E-11
    1026         3.744E-11
  1026.5          3.84E-11
    1027         3.912E-11
  1027.5         4.008E-11
    1028         4.104E-11
  1028.5           4.2E-11
    1029         4.296E-11
  1029.5         4.392E-11
    1030         4.512E-11
  1030.5         4.608E-11
    1031         4.704E-11
  1031.5         4.824E-11
    1032         4.944E-11
  1032.5          5.04E-11
    1033          5.16E-11
  1033.5          5.28E-11
    1034           5.4E-11
  1034.5          5.52E-11
    1035         5.664E-11
  1035.5         5.784E-11
    1036         5.904E-11
  1036.5         6.048E-11
    1037         6.192E-11
  1037.5         6.336E-11
    1038          6.48E-11
  1038.5         6.624E-11
    1039         6.768E-11
  1039.5         6.936E-11
    1040          7.08E-11
  1040.5         7.248E-11
    1041         7.416E-11
  1041.5         7.584E-11
    1042         7.752E-11
  1042.5          7.92E-11
    1043         8.112E-11
  1043.5          8.28E-11
    1044         8.472E-11
  1044.5         8.664E-11
    1045         8.856E-11
  1045.5         9.048E-11
    1046         9.264E-11
  1046.5         9.456E-11
    1047         9.672E-11
  1047.5         9.888E-11
    1048        1.0104E-10
  1048.5        1.0344E-10
    1049         1.056E-10
  1049.5          1.08E-10
    1050         1.104E-10
  1050.5        1.1304E-10
    1051        1.1544E-10
  1051.5        1.1808E-10
    1052        1.2072E-10
  1052.5        1.2336E-10
    1053          1.26E-10
  1053.5        1.2888E-10
    1054        1.3152E-10
  1054.5        1.3464E-10
    1055        1.3752E-10
  1055.5        1.4064E-10
    1056        1.4352E-10
  1056.5        1.4688E-10
    1057           1.5E-10
  1057.5        1.5336E-10
    1058        1.5672E-10
  1058.5        1.6008E-10
    1059        1.6368E-10
  1059.5        1.6704E-10
    1060        1.7088E-10
  1060.5        1.7448E-10
    1061        1.7832E-10
  1061.5        1.8216E-10
    1062        1.8624E-10
  1062.5        1.9008E-10
    1063         1.944E-10
  1063.5        1.9848E-10
    1064         2.028E-10
  1064.5        2.0712E-10
    1065        2.1168E-10
  1065.5        2.1624E-10
    1066         2.208E-10
  1066.5         2.256E-10
    1067         2.304E-10
  1067.5        2.3544E-10
    1068           2.4E-10
  1068.5         2.448E-10
    1069          2.52E-10
  1069.5         2.568E-10
    1070         2.616E-10
  1070.5         2.664E-10
    1071         2.736E-10
  1071.5         2.784E-10
    1072         2.856E-10
  1072.5         2.904E-10
    1073         2.976E-10
  1073.5         3.024E-10
    1074         3.096E-10
  1074.5         3.168E-10
    1075          3.24E-10
  1075.5         3.288E-10
    1076          3.36E-10
  1076.5         3.432E-10
    1077         3.504E-10
  1077.5         3.576E-10
    1078         3.672E-10
  1078.5         3.744E-10
    1079         3.816E-10
  1079.5         3.888E-10
    1080         3.984E-10
  1080.5         4.056E-10
    1081         4.152E-10
  1081.5         4.224E-10
    1082          4.32E-10
  1082.5         4.416E-10
    1083         4.512E-10
  1083.5         4.608E-10
    1084         4.704E-10
  1084.5           4.8E-10
    1085         4.896E-10
  1085.5         4.992E-10
    1086         5.088E-10
  1086.5         5.208E-10
    1087         5.304E-10
  1087.5         5.424E-10
    1088          5.52E-10
  1088.5          5.64E-10
    1089          5.76E-10
  1089.5          5.88E-10
    1090             6E-10
  1090.5          6.12E-10
    1091          6.24E-10
  1091.5         6.384E-10
    1092         6.504E-10
  1092.5         6.648E-10
    1093         6.768E-10
  1093.5         6.912E-10
    1094         7.056E-10
  1094.5           7.2E-10
    1095         7.344E-10
  1095.5         7.488E-10
    1096         7.656E-10
  1096.5           7.8E-10
    1097         7.968E-10
  1097.5         8.136E-10
    1098          8.28E-10
  1098.5         8.448E-10
    1099          8.64E-10
  1099.5         8.808E-10
    1100         8.976E-10
  1100.5         9.168E-10
    1101         9.336E-10
  1101.5         9.528E-10
    1102          9.72E-10
  1102.5         9.912E-10
    1103        1.0128E-09
  1103.5         1.032E-09
    1104        1.0536E-09
  1104.5        1.0752E-09
    1105        1.0944E-09
  1105.5        1.1184E-09
    1106          1.14E-09
  1106.5        1.1616E-09
    1107        1.1856E-09
  1107.5        1.2096E-09
    1108        1.2336E-09
  1108.5        1.2576E-09
    1109        1.2816E-09
  1109.5         1.308E-09
    1110        1.3344E-09
  1110.5        1.3608E-09
    1111        1.3872E-09
  1111.5        1.4136E-09
    1112        1.4424E-09
  1112.5        1.4712E-09
    1113           1.5E-09
  1113.5        1.5288E-09
    1114          1.56E-09
  1114.5        1.5888E-09
    1115          1.62E-09
  1115.5        1.6536E-09
    1116        1.6848E-09
  1116.5        1.7184E-09
    1117         1.752E-09
  1117.5        1.7856E-09
    1118        1.8192E-09
  1118.5        1.8552E-09
    1119        1.8912E-09
  1119.5        1.9296E-09
    1120        1.9656E-09
  1120.5         2.004E-09
    1121        2.0424E-09
  1121.5        2.0832E-09
    1122         2.124E-09
  1122.5        2.1648E-09
    1123        2.2056E-09
  1123.5        2.2488E-09
    1124         2.292E-09
  1124.5        2.3352E-09
    1125        2.3808E-09
  1125.5         2.424E-09
    1126         2.472E-09
  1126.5          2.52E-09
    1127         2.568E-09
  1127.5         2.616E-09
    1128         2.664E-09
  1128.5         2.712E-09
    1129          2.76E-09
  1129.5         2.832E-09
    1130          2.88E-09
  1130.5         2.928E-09
    1131       0.000000003
  1131.5         3.048E-09
    1132         3.096E-09
  1132.5         3.168E-09
    1133         3.216E-09
  1133.5         3.288E-09
    1134         3.336E-09
  1134.5         3.408E-09
    1135          3.48E-09
  1135.5         3.528E-09
    1136           3.6E-09
  1136.5         3.672E-09
    1137         3.744E-09
  1137.5         3.816E-09
    1138         3.888E-09
  1138.5          3.96E-09
    1139         4.032E-09
  1139.5         4.104E-09
    1140         4.176E-09
  1140.5         4.272E-09
    1141         4.344E-09
  1141.5         4.416E-09
    1142         4.512E-09
  1142.5         4.584E-09
    1143          4.68E-09
  1143.5         4.752E-09
    1144         4.848E-09
  1144.5         4.944E-09
    1145          5.04E-09
  1145.5         5.112E-09
    1146         5.208E-09
  1146.5         5.304E-09
    1147           5.4E-09
  1147.5          5.52E-09
    1148         5.616E-09
  1148.5         5.712E-09
    1149         5.832E-09
  1149.5         5.928E-09
    1150         6.048E-09
  1150.5         6.144E-09
    1151         6.264E-09
  1151.5         6.384E-09
    1152          6.48E-09
  1152.5           6.6E-09
    1153          6.72E-09
  1153.5         6.864E-09
    1154         6.984E-09
  1154.5         7.104E-09
    1155         7.224E-09
  1155.5         7.368E-09
    1156         7.512E-09
  1156.5         7.632E-09
    1157         7.776E-09
  1157.5          7.92E-09
    1158         8.064E-09
  1158.5         8.208E-09
    1159         8.352E-09
  1159.5         8.496E-09
    1160         8.664E-09
  1160.5         8.808E-09
    1161         8.976E-09
  1161.5         9.144E-09
    1162         9.288E-09
  1162.5         9.456E-09
    1163         9.624E-09
  1163.5         9.816E-09
    1164         9.984E-09
  1164.5        1.0152E-08
    1165        1.0344E-08
  1165.5        1.0536E-08
    1166        1.0704E-08
  1166.5        1.0896E-08
    1167        1.1088E-08
  1167.5        1.1304E-08
    1168        1.1496E-08
  1168.5        1.1712E-08
    1169        1.1904E-08
  1169.5         1.212E-08
    1170        1.2336E-08
  1170.5        1.2552E-08
    1171        1.2768E-08
  1171.5        1.3008E-08
    1172        1.3224E-08
  1172.5        1.3464E-08
    1173        1.3704E-08
  1173.5        1.3944E-08
    1174        1.4184E-08
  1174.5        1.4424E-08
    1175        1.4688E-08
  1175.5        1.4952E-08
    1176        1.5216E-08
  1176.5         1.548E-08
    1177        1.5744E-08
  1177.5        1.6008E-08
    1178        1.6296E-08
  1178.5        1.6584E-08
    1179        1.6872E-08
  1179.5         1.716E-08
    1180        1.7472E-08
  1180.5         1.776E-08
    1181        1.8072E-08
  1181.5        1.8384E-08
    1182        1.8696E-08
  1182.5        1.9032E-08
    1183        1.9368E-08
  1183.5        1.9704E-08
    1184         2.004E-08
  1184.5        2.0376E-08
    1185        2.0736E-08
  1185.5        2.1096E-08
    1186        2.1456E-08
  1186.5        2.1816E-08
    1187          2.22E-08
  1187.5        2.2584E-08
    1188        2.2968E-08
  1188.5        2.3352E-08
    1189         2.376E-08
  1189.5         2.424E-08
    1190         2.448E-08
  1190.5         2.496E-08
    1191         2.544E-08
  1191.5         2.592E-08
    1192          2.64E-08
  1192.5         2.664E-08
    1193         2.712E-08
  1193.5          2.76E-08
    1194         2.808E-08
  1194.5         2.856E-08
    1195         2.904E-08
  1195.5         2.952E-08
    1196        0.00000003
  1196.5         3.048E-08
    1197          3.12E-08
  1197.5         3.168E-08
    1198         3.216E-08
  1198.5         3.264E-08
    1199         3.336E-08
  1199.5         3.384E-08
    1200         3.432E-08
  1200.5         3.504E-08
    1201         3.552E-08
  1201.5         3.624E-08
    1202         3.672E-08
  1202.5         3.744E-08
    1203         3.792E-08
  1203.5         3.864E-08
    1204         3.936E-08
  1204.5         3.984E-08
    1205         4.056E-08
  1205.5         4.128E-08
    1206       0.000000042
  1206.5         4.272E-08
    1207         4.344E-08
  1207.5         4.392E-08
    1208         4.488E-08
  1208.5          4.56E-08
    1209         4.632E-08
  1209.5         4.704E-08
    1210         4.776E-08
  1210.5         4.848E-08
    1211         4.944E-08
  1211.5         5.016E-08
    1212         5.112E-08
  1212.5         5.184E-08
    1213          5.28E-08
  1213.5         5.352E-08
    1214         5.448E-08
  1214.5         5.544E-08
    1215         5.616E-08
  1215.5         5.712E-08
    1216         5.808E-08
  1216.5         5.904E-08
    1217        0.00000006
  1217.5         6.096E-08
    1218         6.192E-08
  1218.5         6.288E-08
    1219         6.408E-08
  1219.5         6.504E-08
    1220       0.000000066
  1220.5          6.72E-08
    1221         6.816E-08
  1221.5         6.936E-08
    1222         7.056E-08
  1222.5         7.152E-08
    1223         7.272E-08
  1223.5         7.392E-08
    1224         7.512E-08
  1224.5         7.632E-08
    1225         7.752E-08
  1225.5         7.872E-08
    1226         8.016E-08
  1226.5         8.136E-08
    1227         8.256E-08
  1227.5       0.000000084
    1228          8.52E-08
  1228.5         8.664E-08
    1229         8.808E-08
  1229.5         8.952E-08
    1230         9.096E-08
  1230.5          9.24E-08
    1231         9.384E-08
  1231.5         9.528E-08
    1232         9.672E-08
  1232.5          9.84E-08
    1233         9.984E-08
  1233.5        1.0152E-07
    1234         1.032E-07
  1234.5        1.0464E-07
    1235        1.0632E-07
  1235.5       0.000000108
    1236        1.0968E-07
  1236.5         1.116E-07
    1237        1.1328E-07
  1237.5        1.1496E-07
    1238        1.1688E-07
  1238.5        1.1856E-07
    1239        1.2048E-07
  1239.5         1.224E-07
    1240        1.2432E-07
  1240.5        1.2624E-07
    1241        1.2816E-07
  1241.5        1.3032E-07
    1242        1.3224E-07
  1242.5         1.344E-07
    1243        1.3632E-07
  1243.5        1.3848E-07
    1244        1.4064E-07
  1244.5         1.428E-07
    1245         1.452E-07
  1245.5        1.4736E-07
    1246        1.4952E-07
  1246.5        1.5192E-07
    1247        1.5432E-07
  1247.5        1.5672E-07
    1248        1.5912E-07
  1248.5        1.6152E-07
    1249        1.6416E-07
  1249.5        1.6656E-07
    1250         1.692E-07
  1250.5        1.7184E-07
    1251        1.7448E-07
  1251.5        1.7712E-07
    1252        1.7976E-07
  1252.5        1.8264E-07
    1253        1.8528E-07
  1253.5        1.8816E-07
    1254        1.9104E-07
  1254.5        1.9392E-07
    1255         1.968E-07
  1255.5        1.9992E-07
    1256        2.0304E-07
  1256.5        2.0616E-07
    1257        2.0928E-07
  1257.5         2.124E-07
    1258        2.1552E-07
  1258.5        2.1888E-07
    1259        2.2224E-07
  1259.5         2.256E-07
    1260        2.2896E-07
  1260.5        2.3232E-07
    1261        2.3592E-07
