# Filter ID: ED196 1
# Gemini Filter Name: Kshort_G1105
# 42mm diameter Infrasil 6mm thickness
# Central Wavelength: 2.150 um
# Note: Measurements taken at room temp and then calculated to 
# 70K using correlation measurements from Cold test witness
# Created: 2012aug16
# Author: R. Carrasco
# Lambda(nm) Transmission
1810.00    0.00000
1820.00    0.00000
1830.00    0.00016
1830.25    0.00019
1830.50    0.00012
1830.75    0.00015
1831.00    0.00018
1831.25    0.00017
1831.50    0.00016
1831.75    0.00013
1832.00    0.00012
1832.25    0.00012
1832.50    0.00017
1832.75    0.00016
1833.00    0.00014
1833.25    0.00016
1833.50    0.00017
1833.75    0.00018
1834.00    0.00010
1834.25    0.00021
1834.50    0.00018
1834.75    0.00019
1835.00    0.00015
1835.25    0.00014
1835.50    0.00016
1835.75    0.00012
1836.00    0.00010
1836.25    0.00015
1836.50    0.00013
1836.75    0.00019
1837.00    0.00019
1837.25    0.00008
1837.50    0.00015
1837.75    0.00009
1838.00    0.00018
1838.25    0.00015
1838.50    0.00016
1838.75    0.00016
1839.00    0.00018
1839.25    0.00017
1839.50    0.00011
1839.75    0.00012
1840.00    0.00012
1840.25    0.00014
1840.50    0.00015
1840.75    0.00013
1841.00    0.00017
1841.25    0.00021
1841.50    0.00014
1841.75    0.00016
1842.00    0.00021
1842.25    0.00016
1842.50    0.00017
1842.75    0.00018
1843.00    0.00017
1843.25    0.00015
1843.50    0.00018
1843.75    0.00015
1844.00    0.00017
1844.25    0.00018
1844.50    0.00013
1844.75    0.00010
1845.00    0.00013
1845.25    0.00020
1845.50    0.00012
1845.75    0.00023
1846.00    0.00017
1846.25    0.00019
1846.50    0.00013
1846.75    0.00017
1847.00    0.00013
1847.25    0.00012
1847.50    0.00012
1847.75    0.00011
1848.00    0.00012
1848.25    0.00015
1848.50    0.00014
1848.75    0.00009
1849.00    0.00018
1849.25    0.00014
1849.50    0.00017
1849.75    0.00020
1850.00    0.00016
1850.25    0.00020
1850.50    0.00013
1850.75    0.00012
1851.00    0.00020
1851.25    0.00017
1851.50    0.00019
1851.75    0.00017
1852.00    0.00017
1852.25    0.00016
1852.50    0.00010
1852.75    0.00014
1853.00    0.00012
1853.25    0.00012
1853.50    0.00015
1853.75    0.00014
1854.00    0.00015
1854.25    0.00013
1854.50    0.00013
1854.75    0.00017
1855.00    0.00019
1855.25    0.00011
1855.50    0.00016
1855.75    0.00016
1856.00    0.00013
1856.25    0.00010
1856.50    0.00014
1856.75    0.00021
1857.00    0.00020
1857.25    0.00008
1857.50    0.00012
1857.75    0.00014
1858.00    0.00017
1858.25    0.00020
1858.50    0.00013
1858.75    0.00014
1859.00    0.00011
1859.25    0.00008
1859.50    0.00003
1859.75    0.00015
1860.00    0.00013
1860.25    0.00011
1860.50    0.00017
1860.75    0.00011
1861.00    0.00012
1861.25    0.00013
1861.50    0.00015
1861.75    0.00016
1862.00    0.00019
1862.25    0.00014
1862.50    0.00017
1862.75    0.00012
1863.00    0.00016
1863.25    0.00015
1863.50    0.00016
1863.75    0.00019
1864.00    0.00016
1864.25    0.00011
1864.50    0.00013
1864.75    0.00010
1865.00    0.00012
1865.25    0.00021
1865.50    0.00014
1865.75    0.00015
1866.00    0.00018
1866.25    0.00015
1866.50    0.00007
1866.75    0.00010
1867.00    0.00015
1867.25    0.00014
1867.50    0.00016
1867.75    0.00010
1868.00    0.00020
1868.25    0.00017
1868.50    0.00013
1868.75    0.00016
1869.00    0.00013
1869.25    0.00017
1869.50    0.00014
1869.75    0.00015
1870.00    0.00008
1870.25    0.00012
1870.50    0.00013
1870.75    0.00014
1871.00    0.00018
1871.25    0.00006
1871.50    0.00014
1871.75    0.00010
1872.00    0.00016
1872.25    0.00025
1872.50    0.00010
1872.75    0.00017
1873.00    0.00011
1873.25    0.00017
1873.50    0.00013
1873.75    0.00016
1874.00    0.00016
1874.25    0.00013
1874.50    0.00016
1874.75    0.00013
1875.00    0.00011
1875.25    0.00017
1875.50    0.00020
1875.75    0.00018
1876.00    0.00018
1876.25    0.00025
1876.50    0.00015
1876.75    0.00013
1877.00    0.00015
1877.25    0.00015
1877.50    0.00017
1877.75    0.00016
1878.00    0.00017
1878.25    0.00016
1878.50    0.00014
1878.75    0.00011
1879.00    0.00016
1879.25    0.00019
1879.50    0.00014
1879.75    0.00017
1880.00    0.00015
1880.25    0.00012
1880.50    0.00012
1880.75    0.00014
1881.00    0.00014
1881.25    0.00010
1881.50    0.00017
1881.75    0.00017
1882.00    0.00017
1882.25    0.00020
1882.50    0.00015
1882.75    0.00017
1883.00    0.00016
1883.25    0.00018
1883.50    0.00009
1883.75    0.00014
1884.00    0.00017
1884.25    0.00024
1884.50    0.00014
1884.75    0.00014
1885.00    0.00020
1885.25    0.00017
1885.50    0.00018
1885.75    0.00014
1886.00    0.00017
1886.25    0.00014
1886.50    0.00012
1886.75    0.00018
1887.00    0.00012
1887.25    0.00019
1887.50    0.00017
1887.75    0.00022
1888.00    0.00015
1888.25    0.00018
1888.50    0.00014
1888.75    0.00017
1889.00    0.00023
1889.25    0.00016
1889.50    0.00019
1889.75    0.00014
1890.00    0.00011
1890.25    0.00012
1890.50    0.00013
1890.75    0.00019
1891.00    0.00015
1891.25    0.00021
1891.50    0.00021
1891.75    0.00018
1892.00    0.00017
1892.25    0.00011
1892.50    0.00024
1892.75    0.00018
1893.00    0.00020
1893.25    0.00019
1893.50    0.00023
1893.75    0.00017
1894.00    0.00014
1894.25    0.00016
1894.50    0.00022
1894.75    0.00018
1895.00    0.00018
1895.25    0.00018
1895.50    0.00016
1895.75    0.00019
1896.00    0.00022
1896.25    0.00021
1896.50    0.00019
1896.75    0.00014
1897.00    0.00015
1897.25    0.00011
1897.50    0.00016
1897.75    0.00025
1898.00    0.00025
1898.25    0.00019
1898.50    0.00018
1898.75    0.00019
1899.00    0.00017
1899.25    0.00023
1899.50    0.00016
1899.75    0.00020
1900.00    0.00020
1900.25    0.00025
1900.50    0.00015
1900.75    0.00017
1901.00    0.00011
1901.25    0.00019
1901.50    0.00020
1901.75    0.00022
1902.00    0.00020
1902.25    0.00016
1902.50    0.00023
1902.75    0.00017
1903.00    0.00023
1903.25    0.00024
1903.50    0.00017
1903.75    0.00019
1904.00    0.00024
1904.25    0.00022
1904.50    0.00017
1904.75    0.00020
1905.00    0.00022
1905.25    0.00022
1905.50    0.00019
1905.75    0.00015
1906.00    0.00015
1906.25    0.00023
1906.50    0.00023
1906.75    0.00018
1907.00    0.00021
1907.25    0.00024
1907.50    0.00020
1907.75    0.00025
1908.00    0.00021
1908.25    0.00019
1908.50    0.00023
1908.75    0.00021
1909.00    0.00025
1909.25    0.00022
1909.50    0.00016
1909.75    0.00021
1910.00    0.00023
1910.25    0.00022
1910.50    0.00022
1910.75    0.00017
1911.00    0.00018
1911.25    0.00026
1911.50    0.00022
1911.75    0.00023
1912.00    0.00028
1912.25    0.00023
1912.50    0.00021
1912.75    0.00020
1913.00    0.00019
1913.25    0.00027
1913.50    0.00015
1913.75    0.00023
1914.00    0.00021
1914.25    0.00023
1914.50    0.00027
1914.75    0.00024
1915.00    0.00021
1915.25    0.00021
1915.50    0.00027
1915.75    0.00032
1916.00    0.00020
1916.25    0.00026
1916.50    0.00024
1916.75    0.00025
1917.00    0.00022
1917.25    0.00027
1917.50    0.00027
1917.75    0.00032
1918.00    0.00029
1918.25    0.00029
1918.50    0.00026
1918.75    0.00028
1919.00    0.00029
1919.25    0.00027
1919.50    0.00033
1919.75    0.00028
1920.00    0.00023
1920.25    0.00026
1920.50    0.00029
1920.75    0.00029
1921.00    0.00021
1921.25    0.00028
1921.50    0.00031
1921.75    0.00036
1922.00    0.00029
1922.25    0.00031
1922.50    0.00032
1922.75    0.00028
1923.00    0.00030
1923.25    0.00029
1923.50    0.00032
1923.75    0.00038
1924.00    0.00033
1924.25    0.00028
1924.50    0.00033
1924.75    0.00034
1925.00    0.00035
1925.25    0.00035
1925.50    0.00036
1925.75    0.00038
1926.00    0.00039
1926.25    0.00042
1926.50    0.00046
1926.75    0.00039
1927.00    0.00041
1927.25    0.00038
1927.50    0.00045
1927.75    0.00040
1928.00    0.00040
1928.25    0.00048
1928.50    0.00047
1928.75    0.00042
1929.00    0.00037
1929.25    0.00045
1929.50    0.00048
1929.75    0.00052
1930.00    0.00045
1930.25    0.00045
1930.50    0.00047
1930.75    0.00053
1931.00    0.00055
1931.25    0.00051
1931.50    0.00056
1931.75    0.00052
1932.00    0.00065
1932.25    0.00053
1932.50    0.00058
1932.75    0.00065
1933.00    0.00060
1933.25    0.00058
1933.50    0.00061
1933.75    0.00063
1934.00    0.00074
1934.25    0.00066
1934.50    0.00073
1934.75    0.00076
1935.00    0.00073
1935.25    0.00074
1935.50    0.00074
1935.75    0.00075
1936.00    0.00080
1936.25    0.00077
1936.50    0.00087
1936.75    0.00086
1937.00    0.00088
1937.25    0.00087
1937.50    0.00091
1937.75    0.00092
1938.00    0.00082
1938.25    0.00095
1938.50    0.00096
1938.75    0.00096
1939.00    0.00096
1939.25    0.00103
1939.50    0.00105
1939.75    0.00110
1940.00    0.00109
1940.25    0.00109
1940.50    0.00114
1940.75    0.00115
1941.00    0.00120
1941.25    0.00124
1941.50    0.00127
1941.75    0.00138
1942.00    0.00125
1942.25    0.00138
1942.50    0.00139
1942.75    0.00137
1943.00    0.00144
1943.25    0.00144
1943.50    0.00154
1943.75    0.00154
1944.00    0.00158
1944.25    0.00157
1944.50    0.00169
1944.75    0.00172
1945.00    0.00173
1945.25    0.00178
1945.50    0.00177
1945.75    0.00189
1946.00    0.00186
1946.25    0.00192
1946.50    0.00207
1946.75    0.00202
1947.00    0.00207
1947.25    0.00205
1947.50    0.00217
1947.75    0.00223
1948.00    0.00225
1948.25    0.00230
1948.50    0.00236
1948.75    0.00244
1949.00    0.00250
1949.25    0.00252
1949.50    0.00259
1949.75    0.00271
1950.00    0.00271
1950.25    0.00283
1950.50    0.00292
1950.75    0.00289
1951.00    0.00297
1951.25    0.00302
1951.50    0.00311
1951.75    0.00315
1952.00    0.00326
1952.25    0.00336
1952.50    0.00343
1952.75    0.00350
1953.00    0.00357
1953.25    0.00367
1953.50    0.00383
1953.75    0.00384
1954.00    0.00396
1954.25    0.00403
1954.50    0.00414
1954.75    0.00423
1955.00    0.00433
1955.25    0.00444
1955.50    0.00456
1955.75    0.00473
1956.00    0.00481
1956.25    0.00491
1956.50    0.00507
1956.75    0.00517
1957.00    0.00534
1957.25    0.00547
1957.50    0.00559
1957.75    0.00576
1958.00    0.00584
1958.25    0.00598
1958.50    0.00621
1958.75    0.00635
1959.00    0.00656
1959.25    0.00672
1959.50    0.00695
1959.75    0.00711
1960.00    0.00727
1960.25    0.00750
1960.50    0.00773
1960.75    0.00802
1961.00    0.00814
1961.25    0.00841
1961.50    0.00861
1961.75    0.00888
1962.00    0.00917
1962.25    0.00947
1962.50    0.00975
1962.75    0.01003
1963.00    0.01032
1963.25    0.01055
1963.50    0.01100
1963.75    0.01130
1964.00    0.01164
1964.25    0.01205
1964.50    0.01237
1964.75    0.01281
1965.00    0.01315
1965.25    0.01358
1965.50    0.01406
1965.75    0.01445
1966.00    0.01505
1966.25    0.01543
1966.50    0.01596
1966.75    0.01648
1967.00    0.01704
1967.25    0.01765
1967.50    0.01823
1967.75    0.01884
1968.00    0.01946
1968.25    0.02013
1968.50    0.02085
1968.75    0.02146
1969.00    0.02240
1969.25    0.02289
1969.50    0.02393
1969.75    0.02463
1970.00    0.02549
1970.25    0.02661
1970.50    0.02746
1970.75    0.02847
1971.00    0.02945
1971.25    0.03055
1971.50    0.03171
1971.75    0.03273
1972.00    0.03418
1972.25    0.03538
1972.50    0.03674
1972.75    0.03796
1973.00    0.03939
1973.25    0.04102
1973.50    0.04228
1973.75    0.04418
1974.00    0.04567
1974.25    0.04754
1974.50    0.04922
1974.75    0.05098
1975.00    0.05328
1975.25    0.05489
1975.50    0.05736
1975.75    0.05927
1976.00    0.06179
1976.25    0.06395
1976.50    0.06611
1976.75    0.06933
1977.00    0.07169
1977.25    0.07473
1977.50    0.07736
1977.75    0.08044
1978.00    0.08351
1978.25    0.08641
1978.50    0.09023
1978.75    0.09326
1979.00    0.09734
1979.25    0.10084
1979.50    0.10461
1979.75    0.10910
1980.00    0.11249
1980.25    0.11724
1980.50    0.12114
1980.75    0.12643
1981.00    0.13095
1981.25    0.13544
1981.50    0.14132
1981.75    0.14552
1982.00    0.15133
1982.25    0.15656
1982.50    0.16278
1982.75    0.16821
1983.00    0.17387
1983.25    0.18075
1983.50    0.18655
1983.75    0.19379
1984.00    0.20024
1984.25    0.20699
1984.50    0.21484
1984.75    0.22131
1985.00    0.22907
1985.25    0.23612
1985.50    0.24408
1985.75    0.25301
1986.00    0.26048
1986.25    0.26928
1986.50    0.27677
1986.75    0.28620
1987.00    0.29422
1987.25    0.30317
1987.50    0.31306
1987.75    0.32129
1988.00    0.33201
1988.25    0.33955
1988.50    0.35010
1988.75    0.35909
1989.00    0.36875
1989.25    0.37937
1989.50    0.38790
1989.75    0.39977
1990.00    0.40881
1990.25    0.42002
1990.50    0.42849
1990.75    0.43859
1991.00    0.45042
1991.25    0.45958
1991.50    0.47129
1991.75    0.48084
1992.00    0.49211
1992.25    0.50167
1992.50    0.51118
1992.75    0.52361
1993.00    0.53284
1993.25    0.54439
1993.50    0.55407
1993.75    0.56399
1994.00    0.57502
1994.25    0.58479
1994.50    0.59633
1994.75    0.60556
1995.00    0.61671
1995.25    0.62620
1995.50    0.63553
1995.75    0.64673
1996.00    0.65525
1996.25    0.66666
1996.50    0.67537
1996.75    0.68529
1997.00    0.69409
1997.25    0.70266
1997.50    0.71337
1997.75    0.72107
1998.00    0.73033
1998.25    0.73990
1998.50    0.74757
1998.75    0.75632
1999.00    0.76328
1999.25    0.77220
1999.50    0.78175
1999.75    0.78692
2000.00    0.79467
2000.25    0.80118
2000.50    0.80978
2000.75    0.81541
2001.00    0.82309
2001.25    0.82920
2001.50    0.83573
2001.75    0.84172
2002.00    0.84734
2002.25    0.85445
2002.50    0.85944
2002.75    0.86537
2003.00    0.86979
2003.25    0.87505
2003.50    0.88061
2003.75    0.88433
2004.00    0.88962
2004.25    0.89318
2004.50    0.89801
2004.75    0.90115
2005.00    0.90497
2005.25    0.90895
2005.50    0.91180
2005.75    0.91558
2006.00    0.91831
2006.25    0.92112
2006.50    0.92349
2006.75    0.92588
2007.00    0.92864
2007.25    0.93038
2007.50    0.93282
2007.75    0.93454
2008.00    0.93661
2008.25    0.93823
2008.50    0.93962
2008.75    0.94112
2009.00    0.94231
2009.25    0.94363
2009.50    0.94454
2009.75    0.94542
2010.00    0.94642
2010.25    0.94700
2010.50    0.94783
2010.75    0.94842
2011.00    0.94909
2011.25    0.94961
2011.50    0.94982
2011.75    0.95022
2012.00    0.95068
2012.25    0.95094
2012.50    0.95095
2012.75    0.95095
2013.00    0.95129
2013.25    0.95090
2013.50    0.95121
2013.75    0.95117
2014.00    0.95124
2014.25    0.95141
2014.50    0.95121
2014.75    0.95116
2015.00    0.95107
2015.25    0.95093
2015.50    0.95086
2015.75    0.95056
2016.00    0.95068
2016.25    0.95048
2016.50    0.95018
2016.75    0.95031
2017.00    0.94999
2017.25    0.95021
2017.50    0.95007
2017.75    0.95005
2018.00    0.95009
2018.25    0.94997
2018.50    0.95011
2018.75    0.94973
2019.00    0.94997
2019.25    0.95006
2019.50    0.95003
2019.75    0.95017
2020.00    0.95032
2020.25    0.95051
2020.50    0.95068
2020.75    0.95104
2021.00    0.95113
2021.25    0.95147
2021.50    0.95136
2021.75    0.95161
2022.00    0.95186
2022.25    0.95214
2022.50    0.95266
2022.75    0.95298
2023.00    0.95337
2023.25    0.95377
2023.50    0.95395
2023.75    0.95425
2024.00    0.95471
2024.25    0.95532
2024.50    0.95563
2024.75    0.95610
2025.00    0.95644
2025.25    0.95719
2025.50    0.95729
2025.75    0.95821
2026.00    0.95884
2026.25    0.95922
2026.50    0.95988
2026.75    0.96026
2027.00    0.96080
2027.25    0.96144
2027.50    0.96159
2027.75    0.96249
2028.00    0.96300
2028.25    0.96364
2028.50    0.96434
2028.75    0.96482
2029.00    0.96549
2029.25    0.96591
2029.50    0.96659
2029.75    0.96695
2030.00    0.96757
2030.25    0.96807
2030.50    0.96869
2030.75    0.96936
2031.00    0.96971
2031.25    0.97023
2031.50    0.97099
2031.75    0.97135
2032.00    0.97218
2032.25    0.97254
2032.50    0.97321
2032.75    0.97357
2033.00    0.97390
2033.25    0.97443
2033.50    0.97472
2033.75    0.97515
2034.00    0.97539
2034.25    0.97610
2034.50    0.97647
2034.75    0.97689
2035.00    0.97721
2035.25    0.97764
2035.50    0.97798
2035.75    0.97840
2036.00    0.97878
2036.25    0.97893
2036.50    0.97905
2036.75    0.97942
2037.00    0.97960
2037.25    0.98007
2037.50    0.98008
2037.75    0.98055
2038.00    0.98058
2038.25    0.98088
2038.50    0.98110
2038.75    0.98129
2039.00    0.98158
2039.25    0.98161
2039.50    0.98161
2039.75    0.98169
2040.00    0.98180
2040.25    0.98210
2040.50    0.98206
2040.75    0.98215
2041.00    0.98233
2041.25    0.98240
2041.50    0.98262
2041.75    0.98247
2042.00    0.98258
2042.25    0.98251
2042.50    0.98241
2042.75    0.98240
2043.00    0.98258
2043.25    0.98259
2043.50    0.98252
2043.75    0.98242
2044.00    0.98257
2044.25    0.98259
2044.50    0.98248
2044.75    0.98230
2045.00    0.98229
2045.25    0.98215
2045.50    0.98196
2045.75    0.98201
2046.00    0.98201
2046.25    0.98187
2046.50    0.98205
2046.75    0.98198
2047.00    0.98192
2047.25    0.98193
2047.50    0.98195
2047.75    0.98173
2048.00    0.98164
2048.25    0.98156
2048.50    0.98147
2048.75    0.98148
2049.00    0.98131
2049.25    0.98117
2049.50    0.98126
2049.75    0.98115
2050.00    0.98122
2050.25    0.98110
2050.50    0.98100
2050.75    0.98102
2051.00    0.98099
2051.25    0.98096
2051.50    0.98089
2051.75    0.98106
2052.00    0.98088
2052.25    0.98092
2052.50    0.98082
2052.75    0.98083
2053.00    0.98057
2053.25    0.98062
2053.50    0.98061
2053.75    0.98062
2054.00    0.98061
2054.25    0.98055
2054.50    0.98042
2054.75    0.98042
2055.00    0.98052
2055.25    0.98042
2055.50    0.98056
2055.75    0.98044
2056.00    0.98053
2056.25    0.98060
2056.50    0.98063
2056.75    0.98072
2057.00    0.98070
2057.25    0.98057
2057.50    0.98072
2057.75    0.98059
2058.00    0.98058
2058.25    0.98071
2058.50    0.98070
2058.75    0.98091
2059.00    0.98100
2059.25    0.98099
2059.50    0.98124
2059.75    0.98109
2060.00    0.98116
2060.25    0.98139
2060.50    0.98139
2060.75    0.98118
2061.00    0.98159
2061.25    0.98143
2061.50    0.98157
2061.75    0.98181
2062.00    0.98171
2062.25    0.98202
2062.50    0.98196
2062.75    0.98211
2063.00    0.98211
2063.25    0.98222
2063.50    0.98224
2063.75    0.98216
2064.00    0.98233
2064.25    0.98251
2064.50    0.98256
2064.75    0.98285
2065.00    0.98300
2065.25    0.98291
2065.50    0.98288
2065.75    0.98292
2066.00    0.98295
2066.25    0.98300
2066.50    0.98316
2066.75    0.98326
2067.00    0.98342
2067.25    0.98347
2067.50    0.98349
2067.75    0.98364
2068.00    0.98379
2068.25    0.98371
2068.50    0.98393
2068.75    0.98392
2069.00    0.98411
2069.25    0.98395
2069.50    0.98392
2069.75    0.98430
2070.00    0.98424
2070.25    0.98426
2070.50    0.98433
2070.75    0.98429
2071.00    0.98440
2071.25    0.98450
2071.50    0.98457
2071.75    0.98444
2072.00    0.98464
2072.25    0.98460
2072.50    0.98469
2072.75    0.98456
2073.00    0.98468
2073.25    0.98469
2073.50    0.98470
2073.75    0.98472
2074.00    0.98473
2074.25    0.98473
2074.50    0.98483
2074.75    0.98480
2075.00    0.98472
2075.25    0.98475
2075.50    0.98470
2075.75    0.98475
2076.00    0.98465
2076.25    0.98454
2076.50    0.98469
2076.75    0.98454
2077.00    0.98468
2077.25    0.98464
2077.50    0.98448
2077.75    0.98473
2078.00    0.98451
2078.25    0.98419
2078.50    0.98432
2078.75    0.98430
2079.00    0.98406
2079.25    0.98418
2079.50    0.98407
2079.75    0.98417
2080.00    0.98406
2080.25    0.98405
2080.50    0.98383
2080.75    0.98374
2081.00    0.98354
2081.25    0.98334
2081.50    0.98322
2081.75    0.98331
2082.00    0.98326
2082.25    0.98308
2082.50    0.98299
2082.75    0.98293
2083.00    0.98288
2083.25    0.98281
2083.50    0.98256
2083.75    0.98230
2084.00    0.98236
2084.25    0.98212
2084.50    0.98201
2084.75    0.98186
2085.00    0.98186
2085.25    0.98182
2085.50    0.98161
2085.75    0.98132
2086.00    0.98120
2086.25    0.98102
2086.50    0.98084
2086.75    0.98094
2087.00    0.98085
2087.25    0.98047
2087.50    0.98050
2087.75    0.98031
2088.00    0.98022
